**CONSTANTS
!---------!-----------------------------!---------!---------!
! Key     !   Comment                   !  Unit   !  value  !
!---------!-----------------------------!---------!---------!
OVALLDIA   Overall diameter               mm        524.
KROLRAD    kinematic roll radius          mm        245
NOMWIDTH   Nominal section width of tyre  mm        195
ASPRATIO   Nominal aspect ratio           %         50
RIMDIAME   Nominal rim diameter           inch      13

**MODELPARAMETERS
!---------!-----------------------------!---------!---------!---------!
! Key     !   Comment                   !  Unit   !  value  ! factor  !
!---------!-----------------------------!---------!---------!---------!
ITVS       Vertikale Reifenfeder                    300000.
ITVD       Vertikaler Reifendaempfer                  1000.
ITRLLO     Relaxationslaenge laengs                   0.05
ITRLLA     Relaxationsl. quer                         0.1
ITSSCLO    StillStandskoeffizient long                0.01
ITSSCLA    StillStandskoeffizient quer                0.01
ITRORETL   roll resistance Trq/Load                   0.01  

**MEASURCHANNELS
!---------!-----------------------------!---------!---------!---------!---------!
! Key     !   Comment                   !  Unit   !  factor ! offset1 ! offset2 !
!---------!-----------------------------!---------!---------!---------!---------!
!
! physical value [Unit] = factor * (measured value + offset1) + offset2
!
FZC       Vertical force                 N         1         0         0
SLIPANGL  Slip angle                     deg       1         0         0
FYC       Lateral force                  N         1         0         0
MZC       Aligning moment                Nm        1         0         0

**MEASURDATA
!Fz    alpha    Fy
500    -45    644.7
500    -44.37418176    648.48
500    -43.73469628    652.26
500    -43.08125554    656.04
500    -42.41388564    659.83
500    -41.73168542    663.61
500    -41.0346812    667.39
500    -40.32259893    671.17
500    -39.59517123    674.95
500    -38.85213885    678.73
500    -38.09325231    682.52
500    -37.3182736    686.3
500    -36.52734809    690.08
500    -35.71953421    693.86
500    -34.8950025    697.64
500    -34.0535808    701.42
500    -33.19511894    705.2
500    -32.31949125    708.99
500    -31.42659902    712.77
500    -30.51679838    716.55
500    -29.58921014    720.33
500    -28.64424965    724.11
500    -27.68195282    727.89
500    -26.70239597    731.67
500    -25.70569856    735.46
500    -24.6920257    739.24
500    -23.66207136    743.02
500    -22.61514551    746.8
500    -21.55203738    750.6
500    -20.47311763    754.94
500    -19.37881283    759.89
500    -18.26960666    765.32
500    -17.14604069    771.05    0
500    -16.00871474    776.94    0.057529
500    -14.85882201    782.82    0.25277
500    -13.69601285    788.54    0.26015
500    -12.52158824    793.94    -0.23385
500    -11.33637424    798.86    -0.87799
500    -10.14124904    803.15    -1.5288
500    -8.937140028    806.64    -2.1845
500    -7.725020278    809.19    -2.8424
500    -6.506470087    810.63    -3.4996
500    -5.281242061    808.62    -4.1414
500    -4.051379786    770.99    -4.569
500    -2.817824241    662.62    -4.4598
500    -1.581591932    448.55    -3.3799
500    -0.343908057    111.79    -0.9323
500    0.894085356    -275.79    2.2014
500    2.131278888    -558.69    4.01
500    3.366487533    -721.79    4.6
500    4.598514787    -794.44    4.4239
500    5.826295739    -810.9    3.8632
500    7.048844424    -810.14    3.2078
500    8.264976835    -808.18    2.5499
500    9.473657107    -805.2    1.8926
500    10.67388852    -801.33    1.2389
500    11.86416911    -796.74    0.59078
500    13.04469542    -791.59    -0.047503
500    14.21405878    -786.03    -0.30348
500    15.37145707    -780.22    -0.1676
500    16.51614351    -774.31    -0.0047432
500    17.64742816    -768.48    0
500    18.7646789    -762.86
500    19.86681504    -757.62
500    20.95434149    -752.92
500    22.02628642    -748.9
500    23.08224823    -745.12
500    24.12188067    -741.34
500    25.14489103    -737.56
500    26.1510383    -733.78
500    27.14013089    -729.99
500    28.11157856    -726.21
500    29.06618087    -722.43
500    30.00342606    -718.65
500    30.92329532    -714.87
500    31.82580636    -711.09
500    32.71101068    -707.31
500    33.57899085    -703.52
500    34.42946809    -699.74
500    35.2633667    -695.96
500    36.08044923    -692.18
500    36.88089685    -688.4
500    37.66490944    -684.62
500    38.43270336    -680.83
500    39.18450943    -677.05
500    39.92023395    -673.27
500    40.64081209    -669.49
500    41.34616267    -665.71
500    42.03655621    -661.93
500    42.71226926    -658.15
500    43.37358308    -654.36
500    44.02078242    -650.58
500    44.65415442    -646.8
1000    -44.74678607    1182.6
1000    -44.11543711    1189.1
1000    -43.47030347    1195.6
1000    -42.81109774    1202.1
1000    -42.13753476    1208.6
1000    -41.44933268    1215.1
1000    -40.74621416    1221.5
1000    -40.02824365    1228
1000    -39.2944922    1234.5
1000    -38.54503321    1241
1000    -37.77962164    1247.5
1000    -36.99802472    1253.9
1000    -36.20002382    1260.4
1000    -35.38541649    1266.9
1000    -34.55440727    1273.4
1000    -33.70606329    1279.9
1000    -32.84062488    1286.4
1000    -31.95797704    1292.8
1000    -31.0580328    1299.3
1000    -30.1407359    1305.8
1000    -29.20606345    1312.3
1000    -28.25402869    1318.8
1000    -27.28513622    1325.3
1000    -26.29858247    1331.7
1000    -25.29494973    1338.2
1000    -24.27442246    1344.7
1000    -23.23723423    1351.2
1000    -22.18366993    1357.7
1000    -21.1140678    1364.5
1000    -20.02932688    1372.6
1000    -18.92889232    1381.8
1000    -17.8137699    1391.8    0
1000    -16.68452492    1402.4    0.00011664
1000    -15.54178088    1413.2    0.54488
1000    -14.38621921    1423.9    1.4802
1000    -13.21857835    1434.2    1.7881
1000    -12.04020038    1443.9    0.42146
1000    -10.8508415    1452.7    -2.5474
1000    -9.651943322    1460.1    -5.5801
1000    -8.444452288    1466.1    -8.6346
1000    -7.229358942    1470.1    -11.699
1000    -6.007693646    1472.1    -14.759
1000    -4.780692491    1453.9    -17.583
1000    -3.549223977    1336.6    -18.929
1000    -2.314406615    1056.2    -17.141
1000    -1.077491982    567.97    -10.393
1000    0.160490788    -89.725    1.7792
1000    1.398312295    -714.51    12.691
1000    2.634778379    -1147.9    18.014
1000    3.868850908    -1380.1    18.805
1000    5.099339349    -1465.4    16.937
1000    6.3248472    -1471.8    13.967
1000    7.544910394    -1469.3    10.904
1000    8.758131065    -1464.7    7.8412
1000    9.963488733    -1458.3    4.7913
1000    11.16000389    -1450.5    1.7659
1000    12.34674216    -1441.5    -0.9959
1000    13.52281785    -1431.6    -1.8264
1000    14.68686089    -1421.1    -1.2564
1000    15.83916962    -1410.4    -0.32582
1000    16.97847862    -1399.6    0
1000    18.1041214    -1389.2
1000    19.21548952    -1379.3
1000    20.31203282    -1370.4
1000    21.39325905    -1362.6
1000    22.45873328    -1356
1000    23.50759484    -1349.5
1000    24.5404908    -1343
1000    25.55666044    -1336.5
1000    26.55588312    -1330.1
1000    27.53798674    -1323.6
1000    28.50284526    -1317.1
1000    29.45037611    -1310.6
1000    30.38011118    -1304.1
1000    31.29290774    -1297.6
1000    32.18836312    -1291.2
1000    33.0665418    -1284.7
1000    33.92753826    -1278.2
1000    34.77147436    -1271.7
1000    35.59849677    -1265.2
1000    36.40877457    -1258.8
1000    37.20213332    -1252.3
1000    37.97951439    -1245.8
1000    38.74076914    -1239.3
1000    39.48613372    -1232.8
1000    40.21585602    -1226.3
1000    40.93019395    -1219.9
1000    41.62941378    -1213.4
1000    42.31347536    -1206.9
1000    42.9832906    -1200.4
1000    43.63882222    -1193.9
1000    44.28035605    -1187.4
1000    44.90817992    -1181
1500    -44.49104256    1612.5
1500    -43.85410864    1620.6
1500    -43.2035771    1628.7
1500    -42.53855909    1636.8
1500    -41.85906858    1644.9
1500    -41.16482541    1653
1500    -40.45555447    1661.1
1500    -39.73098702    1669.2
1500    -38.99086218    1677.3
1500    -38.23528205    1685.4
1500    -37.46330684    1693.5
1500    -36.67505543    1701.6
1500    -35.87031552    1709.7
1500    -35.04889188    1717.8
1500    -34.21060852    1725.9
1500    -33.35531103    1734.1
1500    -32.482869    1742.2
1500    -31.59359426    1750.3
1500    -30.68658865    1758.4
1500    -29.76221688    1766.5
1500    -28.82047044    1774.6
1500    -27.86137804    1782.7
1500    -26.88500833    1790.8
1500    -25.89147256    1798.9
1500    -24.88139877    1807
1500    -23.85405579    1815.1
1500    -22.81016155    1823.2
1500    -21.75002244    1831.3
1500    -20.67399892    1840.6
1500    -19.58250712    1851.8
1500    -18.47602007    1864.6
1500    -17.35559057    1878.4    0
1500    -16.22076997    1892.8    0.23582
1500    -15.07272085    1907.6    2.1322
1500    -13.91214799    1922.1    4.5389
1500    -12.73981269    1936.1    5.7108
1500    -11.55653108    1949    3.8529
1500    -10.36317192    1960.5    -2.5295
1500    -9.160653732    1970.2    -10.249
1500    -7.950503417    1977.6    -18.024
1500    -6.732607392    1982.3    -25.822
1500    -5.508512558    1983.9    -33.603
1500    -4.279467406    1919.4    -40.02
1500    -3.046464506    1674.2    -41.457
1500    -1.810688449    1169.9    -33.547
1500    -0.573167858    405.32    -13.208
1500    0.664887674    -468.46    15.13
1500    1.902265465    -1217    34.544
1500    3.13792811    -1700.5    41.616
1500    4.370676218    -1929.3    39.668
1500    5.599327096    -1983.9    33.029
1500    6.823003744    -1982    25.244
1500    8.040403017    -1977.1    17.447
1500    9.250539076    -1969.5    9.6752
1500    10.45185351    -1959.7    1.9606
1500    11.64449743    -1948.1    -4.1346
1500    12.82699772    -1935.1    -5.7056
1500    13.99848945    -1921    -4.3812
1500    15.15816046    -1906.5    -1.9532
1500    16.3052536    -1891.8    -0.16248
1500    17.43906832    -1877.3    0
1500    18.55844683    -1863.6
1500    19.66384112    -1850.9
1500    20.75420316    -1839.8
1500    21.82906418    -1830.7
1500    22.8880122    -1822.6
1500    23.93069084    -1814.5
1500    24.95679763    -1806.4
1500    25.96561902    -1798.3
1500    26.9578886    -1790.2
1500    27.93298238    -1782.1
1500    28.89079234    -1774
1500    29.83125288    -1765.9
1500    30.75433813    -1757.8
1500    31.66005925    -1749.7
1500    32.5484617    -1741.6
1500    33.41922333    -1733.5
1500    34.27325631    -1725.3
1500    35.11028582    -1717.2
1500    35.93046792    -1709.1
1500    36.7339801    -1701
1500    37.52101896    -1692.9
1500    38.29179794    -1684.8
1500    39.04619976    -1676.7
1500    39.78516398    -1668.6
1500    40.50858984    -1660.5
1500    41.21673883    -1652.4
1500    41.90988021    -1644.3
1500    42.58828952    -1636.2
1500    43.25224725    -1628.1
1500    43.90174012    -1620
1500    44.53765618    -1611.9
2000    -44.86215958    1924.3
2000    -44.23333052    1933
2000    -43.59077014    1941.6
2000    -42.93419074    1950.3
2000    -42.26330665    1958.9
2000    -41.57783532    1967.5
2000    -40.87782606    1976.2
2000    -40.16235811    1984.8
2000    -39.43148639    1993.5
2000    -38.68495367    2002.1
2000    -37.92251286    2010.8
2000    -37.14392878    2019.4
2000    -36.34898002    2028
2000    -35.53784039    2036.7
2000    -34.70957122    2045.3
2000    -33.86437672    2054
2000    -33.00211195    2062.6
2000    -32.12265699    2071.3
2000    -31.2259195    2079.9
2000    -30.31183732    2088.5
2000    -29.38081625    2097.2
2000    -28.43200054    2105.8
2000    -27.46586185    2114.5
2000    -26.48248586    2123.1
2000    -25.48200195    2131.8
2000    -24.46458573    2140.4
2000    -23.4304615    2149.1
2000    -22.37990451    2157.7
2000    -21.31374024    2166.6
2000    -20.23136433    2178
2000    -19.13370583    2191.6
2000    -18.02126123    2207.1
2000    -16.89458504    2223.8    0
2000    -15.75428999    2241.3    1.4276
2000    -14.60104685    2259    5.6629
2000    -13.43612561    2276.4    10.398
2000    -12.25923123    2293    13.172
2000    -11.07173811    2308.2    11.454
2000    -9.874535645    2321.5    2.6604
2000    -8.668561697    2332.5    -12.276
2000    -7.454798951    2340.5    -27.496
2000    -6.234270744    2345.1    -42.756
2000    -5.008320667    2338    -57.787
2000    -3.777528212    2197.2    -68.556
2000    -2.54329221    1797.8    -67.751
2000    -1.306632874    1063.1    -46.959
2000    -0.06878355    59.157    -2.9966
2000    1.169129977    -961.64    43.168
2000    2.405981571    -1733.2    66.566
2000    3.640536795    -2167.6    69.194
2000    4.871773696    -2331.7    59.312
2000    6.098347518    -2345.4    44.451
2000    7.319562349    -2341.2    29.191
2000    8.53412768    -2333.5    13.963
2000    9.741015939    -2322.9    -1.1335
2000    10.93923971    -2309.8    -10.874
2000    12.12785596    -2294.7    -13.25
2000    13.30542715    -2278.3    -10.849
2000    14.47220022    -2260.9    -6.2087
2000    15.62683749    -2243.2    -1.7988
2000    16.76860472    -2225.7    0
2000    17.89682473    -2208.9
2000    19.01087832    -2193.3
2000    20.11020452    -2179.4
2000    21.19430043    -2167.8
2000    22.26222985    -2158.7
2000    23.3145926    -2150
2000    24.35055638    -2141.4
2000    25.36984017    -2132.7
2000    26.37221412    -2124.1
2000    27.35749731    -2115.4
2000    28.32555538    -2106.8
2000    29.27586196    -2098.2
2000    30.20924792    -2089.5
2000    31.12525882    -2080.9
2000    32.02392012    -2072.2
2000    32.90529044    -2063.6
2000    33.76945891    -2054.9
2000    34.61654251    -2046.3
2000    35.44630327    -2037.6
2000    36.25967452    -2029
2000    37.05645372    -2020.4
2000    37.8368446    -2011.7
2000    38.6010669    -2003.1
2000    39.34935437    -1994.4
2000    40.08195287    -1985.8
2000    40.79911858    -1977.1
2000    41.50079497    -1968.5
2000    42.18790361    -1959.9
2000    42.86039387    -1951.2
2000    43.51854789    -1942.6
2000    44.16265105    -1933.9
2000    44.79299086    -1925.3
2500    -44.60743693    2134.6
2500    -43.97334144    2142.7
2500    -43.32510688    2150.8
2500    -42.66273667    2158.9
2500    -41.98594627    2167
2500    -41.29445473    2175.1
2500    -40.58798589    2183.2
2500    -39.86626975    2191.3
2500    -39.12938862    2199.4
2500    -38.37640702    2207.5
2500    -37.60742001    2215.6
2500    -36.8221978    2223.7
2500    -36.02052517    2231.8
2500    -35.20220355    2239.9
2500    -34.36705324    2248
2500    -33.51491564    2256.2
2500    -32.64606194    2264.3
2500    -31.75957871    2272.4
2500    -30.85578384    2280.5
2500    -29.93462824    2288.6
2500    -28.99609682    2296.7
2500    -28.0402112    2304.8
2500    -27.06703242    2312.9
2500    -26.07712591    2321
2500    -25.06972294    2329.1
2500    -24.045473    2337.2
2500    -23.00462086    2345.3
2500    -21.94746312    2353.4
2500    -20.87435009    2362.8
2500    -19.78568749    2375.5
2500    -18.68245192    2390.9
2500    -17.56414173    2408.2    0
2500    -16.43184243    2427    0.18751
2500    -15.28619045    2446.6    4.4363
2500    -14.12787998    2466.4    12.078
2500    -12.95766196    2485.7    20.083
2500    -11.77634252    2504    25.317
2500    -10.58478087    2520.7    24.553
2500    -9.384444299    2535    14.501
2500    -8.175177598    2546.5    -7.5012
2500    -6.958534169    2554.4    -33.16
2500    -5.735552586    2558.2    -58.884
2500    -4.507419219    2521.7    -83.35
2500    -3.275064805    2278.3    -98.17
2500    -2.03966984    1702.1    -90.425
2500    -0.80243222    749.67    -47.35
2500    0.435611418    -413.36    27.337
2500    1.673248469    -1456.5    81.708
2500    2.909268675    -2147    98.896
2500    4.142642076    -2477.3    89.249
2500    5.372182023    -2558.5    66.498
2500    6.596949841    -2556    40.782
2500    7.815017878    -2549.2    15.09
2500    9.026578812    -2538.7    -9.2522
2500    10.23005548    -2525.2    -22.692
2500    11.42447806    -2509.1    -25.863
2500    12.6089227    -2491.3    -22.067
2500    13.78251496    -2472.2    -14.552
2500    14.94443275    -2452.5    -6.4813
2500    16.09390859    -2432.8    -0.91742
2500    17.22970867    -2413.7    0
2500    18.35223128    -2395.8
2500    19.46035201    -2379.8
2500    20.55353358    -2366.3
2500    21.63129657    -2355.8
2500    22.6932186    -2347.7
2500    23.73893309    -2339.6
2500    24.76765533    -2331.5
2500    25.78007803    -2323.4
2500    26.77551145    -2315.3
2500    27.75379392    -2307.2
2500    28.71480928    -2299.1
2500    29.65848428    -2291
2500    30.58478591    -2282.9
2500    31.49371869    -2274.8
2500    32.38491331    -2266.7
2500    33.25926632    -2258.6
2500    34.1164619    -2250.4
2500    34.95662765    -2242.3
2500    35.77991541    -2234.2
2500    36.58649891    -2226.1
2500    37.37657134    -2218
2500    38.14998889    -2209.9
2500    38.90769329    -2201.8
2500    39.64956162    -2193.7
2500    40.37584415    -2185.6
2500    41.08680078    -2177.5
2500    41.78269945    -2169.4
2500    42.46381464    -2161.3
2500    43.13012084    -2153.2
2500    43.7825185    -2145.1
2500    44.42098217    -2137
3000    -44.97707252    2227.4
3000    -44.35075346    2233.9
3000    -43.71075649    2240.4
3000    -43.05679362    2246.9
3000    -42.38889129    2253.4
3000    -41.70614798    2259.9
3000    -41.00859042    2266.3
3000    -40.29594479    2272.8
3000    -39.56794397    2279.3
3000    -38.82432905    2285.8
3000    -38.06485094    2292.3
3000    -37.28927211    2298.7
3000    -36.49773871    2305.2
3000    -35.68930924    2311.7
3000    -34.86415521    2318.2
3000    -34.02210521    2324.7
3000    -33.16300996    2331.2
3000    -32.28674472    2337.6
3000    -31.39321184    2344.1
3000    -30.4827689    2350.6
3000    -29.55453735    2357.1
3000    -28.60893419    2363.6
3000    -27.64599677    2370.1
3000    -26.66580298    2376.5
3000    -25.66847391    2383
3000    -24.65417641    2389.5
3000    -23.62312562    2396
3000    -22.57607568    2402.5
3000    -21.51237526    2409.1
3000    -20.43287801    2418.8
3000    -19.33801258    2432.2
3000    -18.2282648    2448.4
3000    -17.10417839    2466.9    0
3000    -15.96635532    2486.9    1.7962
3000    -14.81599114    2507.8    10.197
3000    -13.65273789    2528.8    22.337
3000    -12.4778988    2549.2    34.595
3000    -11.29230192    2568.4    43.218
3000    -10.09682732    2585.7    44.34
3000    -8.892404136    2600.3    34.018
3000    -7.680007064    2611.6    8.2958
3000    -6.461217957    2618.8    -30.428
3000    -5.235790451    2621.4    -69.738
3000    -4.005769397    2528.2    -105.14
3000    -2.772039445    2163.4    -122.39
3000    -1.535789225    1410.8    -100.96
3000    -0.298055686    296.15    -25.629
3000    0.939967517    -907.99    71.525
3000    2.177050747    -1853.3    118.22
3000    3.412163945    -2394.9    116.88
3000    4.644053864    -2601.9    87.992
3000    5.871656349    -2620.7    49.357
3000    7.093986383    -2615.6    10.067
3000    8.309861153    -2606.2    -23.798
3000    9.51824616    -2593.1    -41.043
3000    10.71814622    -2577    -44.936
3000    11.90806123    -2558.6    -39.437
3000    13.08818921    -2538.7    -28.453
3000    14.25712359    -2517.9    -15.795
3000    15.41406425    -2496.9    -5.1506
3000    16.5582665    -2476.4    -0.071467
3000    17.68904253    -2457.1    0
3000    18.80576236    -2439.7
3000    19.90734772    -2424.8
3000    20.99430517    -2413.3
3000    22.06566521    -2405.6
3000    23.12102835    -2399.1
3000    24.16005033    -2392.6
3000    25.18244041    -2386.1
3000    26.18795943    -2379.7
3000    27.1764176    -2373.2
3000    28.14722667    -2366.7
3000    29.10118721    -2360.2
